73CSV  	
// AQ6373B OPTICAL SPECTRUM ANALYZER //                 
35
"CTRWL", 450.000000
"SPAN",  30.000000
"START WL", 435.000000
"STOP WL", 465.000000
"WLFREQ", 0
"REFL",-50.5
"LSCL",10.0
"RESLN",0.050
"AVG",   1
"SMPLAUTO",      1
"SMPL",       3001
"SMPLINTVL",0.0100
"HIGH1"
"MEAS"
"LSUNT",0
"NMSKH","OFF"
"RESCOR",0
"SMOOTH",0
"MEASWL",0
"SWPSPD",0
"CHGPT",         -1
"RESCAL0_0",       9389
"RESCAL0_1",        538
"RESCAL0_2",    -340913
"RESCAL1_0",       9652
"RESCAL1_1",         64
"RESCAL1_2",     -41039
"CORESIZE", 0







"[TRACE DATA]"
 435.0000, -71.234
 435.0100, -83.507
 435.0200, -71.983
 435.0300,-210.000
 435.0400, -74.933
 435.0500,-210.000
 435.0600,-210.000
 435.0700, -78.820
 435.0800, -73.929
 435.0900, -75.238
 435.1000,-210.000
 435.1100, -72.687
 435.1200, -72.710
 435.1300, -72.364
 435.1400,-210.000
 435.1500, -72.968
 435.1600, -82.035
 435.1700,-210.000
 435.1800, -71.872
 435.1900,-210.000
 435.2000,-210.000
 435.2100,-210.000
 435.2200,-210.000
 435.2300, -71.705
 435.2400, -79.431
 435.2500, -80.569
 435.2600, -74.327
 435.2700, -69.311
 435.2800,-210.000
 435.2900, -73.322
 435.3000, -79.611
 435.3100, -72.993
 435.3200, -74.818
 435.3300, -78.990
 435.3400,-210.000
 435.3500,-210.000
 435.3600, -73.417
 435.3700,-210.000
 435.3800,-210.000
 435.3900, -71.722
 435.4000, -73.679
 435.4100, -72.056
 435.4200, -83.917
 435.4300,-210.000
 435.4400, -71.948
 435.4500,-210.000
 435.4600, -72.637
 435.4700, -71.048
 435.4800, -68.172
 435.4900,-210.000
 435.5000, -74.297
 435.5100,-210.000
 435.5200,-210.000
 435.5300,-210.000
 435.5400,-210.000
 435.5500,-210.000
 435.5600, -77.550
 435.5700, -70.824
 435.5800, -86.253
 435.5900, -75.435
 435.6000, -72.905
 435.6100, -74.795
 435.6200,-210.000
 435.6300, -73.878
 435.6400, -78.104
 435.6500, -71.227
 435.6600,-210.000
 435.6700, -75.467
 435.6800, -71.872
 435.6900, -75.055
 435.7000, -77.481
 435.7100, -72.527
 435.7200, -77.973
 435.7300, -73.979
 435.7400, -76.910
 435.7500, -75.519
 435.7600, -72.107
 435.7700, -72.709
 435.7800, -72.048
 435.7900, -70.567
 435.8000, -73.137
 435.8100,-210.000
 435.8200, -73.678
 435.8300, -70.607
 435.8400, -76.279
 435.8500, -70.167
 435.8600, -72.247
 435.8700, -70.085
 435.8800, -76.465
 435.8900, -69.502
 435.9000, -85.153
 435.9100, -70.213
 435.9200, -69.938
 435.9300, -76.445
 435.9400, -76.859
 435.9500,-210.000
 435.9600,-210.000
 435.9700,-210.000
 435.9800, -76.418
 435.9900, -69.828
 436.0000,-210.000
 436.0100, -81.894
 436.0200, -71.684
 436.0300, -78.071
 436.0400, -79.620
 436.0500, -77.686
 436.0600,-210.000
 436.0700,-210.000
 436.0800, -76.869
 436.0900, -72.322
 436.1000,-210.000
 436.1100, -73.211
 436.1200, -78.120
 436.1300, -77.766
 436.1400,-210.000
 436.1500, -70.588
 436.1600, -73.766
 436.1700, -71.677
 436.1800, -74.283
 436.1900, -74.334
 436.2000, -71.204
 436.2100, -73.029
 436.2200, -86.352
 436.2300,-210.000
 436.2400, -73.118
 436.2500, -82.826
 436.2600, -74.358
 436.2700, -76.872
 436.2800,-210.000
 436.2900, -78.117
 436.3000,-210.000
 436.3100, -73.322
 436.3200, -74.578
 436.3300, -86.085
 436.3400, -95.902
 436.3500, -78.377
 436.3600,-210.000
 436.3700, -72.732
 436.3800, -74.827
 436.3900,-210.000
 436.4000,-210.000
 436.4100,-210.000
 436.4200, -76.400
 436.4300, -73.751
 436.4400, -73.459
 436.4500, -88.881
 436.4600, -74.881
 436.4700, -78.688
 436.4800, -77.532
 436.4900, -78.942
 436.5000, -81.818
 436.5100, -73.788
 436.5200, -75.803
 436.5300, -73.423
 436.5400,-210.000
 436.5500, -72.222
 436.5600, -70.910
 436.5700,-210.000
 436.5800, -77.124
 436.5900, -77.048
 436.6000, -74.399
 436.6100, -70.291
 436.6200, -70.043
 436.6300, -68.830
 436.6400, -74.928
 436.6500,-210.000
 436.6600, -79.100
 436.6700,-210.000
 436.6800,-210.000
 436.6900, -72.909
 436.7000,-210.000
 436.7100, -70.606
 436.7200, -78.776
 436.7300,-210.000
 436.7400, -70.919
 436.7500, -70.699
 436.7600, -72.719
 436.7700, -69.905
 436.7800, -73.553
 436.7900,-210.000
 436.8000, -72.030
 436.8100, -73.179
 436.8200, -73.448
 436.8300, -74.398
 436.8400, -72.134
 436.8500, -69.458
 436.8600,-210.000
 436.8700, -77.864
 436.8800,-210.000
 436.8900, -71.907
 436.9000,-210.000
 436.9100,-210.000
 436.9200, -78.033
 436.9300, -76.635
 436.9400, -71.684
 436.9500, -72.116
 436.9600, -72.497
 436.9700, -72.431
 436.9800,-210.000
 436.9900, -74.320
 437.0000, -70.195
 437.0100, -70.200
 437.0200,-210.000
 437.0300, -74.909
 437.0400, -79.111
 437.0500, -72.623
 437.0600, -69.694
 437.0700, -73.775
 437.0800, -79.875
 437.0900, -72.960
 437.1000, -70.652
 437.1100, -71.605
 437.1200, -76.876
 437.1300,-210.000
 437.1400, -70.849
 437.1500, -86.822
 437.1600,-210.000
 437.1700, -84.642
 437.1800, -72.662
 437.1900, -74.758
 437.2000, -85.229
 437.2100, -76.917
 437.2200, -75.255
 437.2300, -72.854
 437.2400,-210.000
 437.2500, -71.765
 437.2600, -77.067
 437.2700, -70.320
 437.2800, -73.645
 437.2900, -70.039
 437.3000, -73.887
 437.3100, -72.012
 437.3200, -72.986
 437.3300, -77.959
 437.3400, -70.142
 437.3500, -74.263
 437.3600, -73.805
 437.3700,-210.000
 437.3800, -73.637
 437.3900, -79.146
 437.4000, -80.623
 437.4100, -70.320
 437.4200, -74.714
 437.4300, -70.510
 437.4400, -72.114
 437.4500, -73.018
 437.4600, -72.336
 437.4700,-210.000
 437.4800,-210.000
 437.4900, -71.509
 437.5000, -70.808
 437.5100, -78.287
 437.5200, -75.309
 437.5300,-210.000
 437.5400, -72.505
 437.5500, -75.633
 437.5600,-210.000
 437.5700, -73.924
 437.5800, -73.626
 437.5900, -73.253
 437.6000,-210.000
 437.6100, -72.146
 437.6200, -72.439
 437.6300, -74.302
 437.6400, -78.600
 437.6500,-210.000
 437.6600, -81.320
 437.6700, -80.664
 437.6800, -74.540
 437.6900, -76.339
 437.7000, -72.466
 437.7100, -70.665
 437.7200, -69.464
 437.7300, -70.232
 437.7400, -73.829
 437.7500,-210.000
 437.7600, -70.888
 437.7700, -70.231
 437.7800, -72.491
 437.7900,-210.000
 437.8000, -69.750
 437.8100, -79.005
 437.8200, -74.998
 437.8300, -73.961
 437.8400, -70.374
 437.8500, -69.026
 437.8600, -78.399
 437.8700,-210.000
 437.8800, -74.925
 437.8900, -80.048
 437.9000,-210.000
 437.9100, -82.832
 437.9200,-210.000
 437.9300,-210.000
 437.9400, -87.036
 437.9500, -72.898
 437.9600,-210.000
 437.9700,-210.000
 437.9800, -75.669
 437.9900, -71.521
 438.0000,-210.000
 438.0100, -84.098
 438.0200, -74.269
 438.0300, -71.617
 438.0400, -75.465
 438.0500, -73.931
 438.0600, -73.944
 438.0700, -74.160
 438.0800, -79.533
 438.0900, -75.075
 438.1000, -78.890
 438.1100, -71.068
 438.1200, -74.339
 438.1300, -72.954
 438.1400, -72.325
 438.1500, -75.866
 438.1600, -77.703
 438.1700, -74.108
 438.1800,-210.000
 438.1900, -68.809
 438.2000, -73.654
 438.2100,-210.000
 438.2200,-210.000
 438.2300,-210.000
 438.2400, -77.471
 438.2500, -77.325
 438.2600, -80.096
 438.2700, -70.000
 438.2800, -71.735
 438.2900, -75.938
 438.3000, -77.482
 438.3100, -69.078
 438.3200,-210.000
 438.3300, -74.548
 438.3400,-210.000
 438.3500,-210.000
 438.3600, -71.178
 438.3700, -69.887
 438.3800,-210.000
 438.3900, -91.194
 438.4000, -87.449
 438.4100, -73.056
 438.4200, -71.669
 438.4300, -73.690
 438.4400, -73.917
 438.4500,-210.000
 438.4600, -78.065
 438.4700, -76.662
 438.4800, -77.298
 438.4900,-210.000
 438.5000, -69.552
 438.5100, -70.974
 438.5200, -73.515
 438.5300, -73.434
 438.5400,-210.000
 438.5500,-210.000
 438.5600, -69.788
 438.5700, -71.583
 438.5800, -72.781
 438.5900,-210.000
 438.6000, -85.571
 438.6100,-210.000
 438.6200,-210.000
 438.6300,-210.000
 438.6400,-210.000
 438.6500,-210.000
 438.6600, -76.434
 438.6700,-210.000
 438.6800,-210.000
 438.6900,-210.000
 438.7000, -71.782
 438.7100, -72.209
 438.7200,-210.000
 438.7300, -76.366
 438.7400, -72.804
 438.7500, -72.109
 438.7600,-210.000
 438.7700,-210.000
 438.7800,-210.000
 438.7900, -71.894
 438.8000, -72.267
 438.8100, -79.937
 438.8200, -81.107
 438.8300, -72.967
 438.8400, -73.114
 438.8500, -70.047
 438.8600,-210.000
 438.8700,-210.000
 438.8800, -97.912
 438.8900, -75.521
 438.9000,-210.000
 438.9100,-210.000
 438.9200, -77.038
 438.9300,-210.000
 438.9400, -73.788
 438.9500, -74.341
 438.9600, -72.440
 438.9700, -72.729
 438.9800, -76.906
 438.9900, -73.258
 439.0000, -79.691
 439.0100, -72.816
 439.0200, -78.105
 439.0300, -71.079
 439.0400,-210.000
 439.0500,-210.000
 439.0600, -75.586
 439.0700,-210.000
 439.0800, -71.408
 439.0900,-210.000
 439.1000, -68.719
 439.1100, -85.701
 439.1200,-210.000
 439.1300, -76.501
 439.1400,-210.000
 439.1500, -79.173
 439.1600, -71.820
 439.1700, -71.529
 439.1800,-210.000
 439.1900, -72.794
 439.2000,-210.000
 439.2100, -70.912
 439.2200, -81.746
 439.2300, -83.208
 439.2400, -74.427
 439.2500, -73.504
 439.2600, -80.755
 439.2700,-210.000
 439.2800, -74.188
 439.2900, -72.432
 439.3000, -70.387
 439.3100, -75.477
 439.3200, -75.090
 439.3300, -73.352
 439.3400, -73.337
 439.3500, -75.672
 439.3600, -73.327
 439.3700,-210.000
 439.3800, -70.557
 439.3900,-210.000
 439.4000, -71.801
 439.4100, -77.022
 439.4200, -84.355
 439.4300, -70.933
 439.4400, -69.045
 439.4500,-210.000
 439.4600,-210.000
 439.4700,-210.000
 439.4800, -69.747
 439.4900, -79.900
 439.5000,-210.000
 439.5100,-210.000
 439.5200, -69.638
 439.5300, -73.391
 439.5400, -70.703
 439.5500, -77.560
 439.5600,-210.000
 439.5700,-210.000
 439.5800,-210.000
 439.5900, -73.690
 439.6000, -75.602
 439.6100, -78.877
 439.6200, -71.666
 439.6300, -94.113
 439.6400, -70.849
 439.6500, -74.868
 439.6600,-210.000
 439.6700, -72.511
 439.6800, -76.103
 439.6900, -68.193
 439.7000,-210.000
 439.7100, -74.274
 439.7200, -71.428
 439.7300, -73.199
 439.7400, -74.966
 439.7500,-210.000
 439.7600, -72.615
 439.7700, -70.195
 439.7800, -79.468
 439.7900, -85.171
 439.8000,-210.000
 439.8100,-210.000
 439.8200, -76.107
 439.8300,-210.000
 439.8400,-210.000
 439.8500, -71.543
 439.8600,-210.000
 439.8700, -74.310
 439.8800, -72.558
 439.8900, -75.420
 439.9000, -86.273
 439.9100, -77.955
 439.9200, -77.254
 439.9300,-210.000
 439.9400,-210.000
 439.9500, -74.153
 439.9600, -79.279
 439.9700, -74.857
 439.9800, -77.443
 439.9900,-210.000
 440.0000, -78.163
 440.0100, -71.532
 440.0200, -72.072
 440.0300, -80.465
 440.0400,-210.000
 440.0500, -76.709
 440.0600, -71.909
 440.0700, -84.462
 440.0800, -71.233
 440.0900,-210.000
 440.1000, -76.760
 440.1100, -70.878
 440.1200, -70.781
 440.1300,-210.000
 440.1400,-210.000
 440.1500, -84.833
 440.1600, -73.183
 440.1700,-210.000
 440.1800, -71.311
 440.1900, -75.384
 440.2000,-210.000
 440.2100, -74.535
 440.2200, -70.992
 440.2300, -76.279
 440.2400, -77.185
 440.2500, -70.369
 440.2600, -71.911
 440.2700, -72.606
 440.2800,-210.000
 440.2900, -73.606
 440.3000, -70.972
 440.3100, -72.518
 440.3200, -75.244
 440.3300, -70.573
 440.3400, -73.762
 440.3500, -76.159
 440.3600, -76.298
 440.3700, -72.603
 440.3800, -90.632
 440.3900, -88.605
 440.4000, -69.158
 440.4100,-210.000
 440.4200, -70.113
 440.4300, -77.666
 440.4400, -77.527
 440.4500, -75.648
 440.4600, -71.938
 440.4700, -72.025
 440.4800, -75.368
 440.4900, -70.082
 440.5000, -72.702
 440.5100, -80.565
 440.5200, -71.313
 440.5300, -84.174
 440.5400, -72.594
 440.5500, -82.198
 440.5600, -75.227
 440.5700,-210.000
 440.5800, -73.083
 440.5900,-210.000
 440.6000, -69.716
 440.6100,-210.000
 440.6200, -73.852
 440.6300,-210.000
 440.6400, -73.137
 440.6500,-210.000
 440.6600, -75.553
 440.6700, -69.045
 440.6800,-210.000
 440.6900, -71.794
 440.7000, -73.931
 440.7100, -78.746
 440.7200, -70.191
 440.7300, -71.930
 440.7400, -69.624
 440.7500, -71.564
 440.7600,-210.000
 440.7700, -73.828
 440.7800, -81.851
 440.7900, -72.770
 440.8000, -78.468
 440.8100, -73.122
 440.8200, -76.912
 440.8300, -71.822
 440.8400, -71.214
 440.8500, -71.969
 440.8600, -83.316
 440.8700,-210.000
 440.8800, -72.996
 440.8900, -72.412
 440.9000, -71.859
 440.9100, -73.035
 440.9200,-210.000
 440.9300, -74.719
 440.9400, -73.286
 440.9500,-210.000
 440.9600,-210.000
 440.9700,-210.000
 440.9800,-210.000
 440.9900, -71.311
 441.0000, -71.540
 441.0100, -75.706
 441.0200, -76.474
 441.0300,-210.000
 441.0400, -74.438
 441.0500, -80.945
 441.0600, -74.229
 441.0700, -69.680
 441.0800, -71.743
 441.0900, -75.835
 441.1000,-210.000
 441.1100, -70.893
 441.1200, -72.480
 441.1300, -75.356
 441.1400, -72.717
 441.1500, -72.503
 441.1600,-210.000
 441.1700,-210.000
 441.1800, -75.541
 441.1900,-210.000
 441.2000, -74.464
 441.2100, -69.343
 441.2200,-210.000
 441.2300, -68.771
 441.2400, -88.114
 441.2500, -77.376
 441.2600,-210.000
 441.2700, -72.640
 441.2800, -74.850
 441.2900, -78.103
 441.3000, -88.884
 441.3100, -74.413
 441.3200, -73.751
 441.3300, -74.984
 441.3400, -70.410
 441.3500, -78.897
 441.3600, -75.485
 441.3700, -75.476
 441.3800,-210.000
 441.3900, -71.726
 441.4000, -78.391
 441.4100, -70.411
 441.4200, -71.754
 441.4300,-210.000
 441.4400, -79.524
 441.4500, -73.951
 441.4600, -75.085
 441.4700, -68.796
 441.4800,-210.000
 441.4900, -77.894
 441.5000, -78.444
 441.5100, -78.141
 441.5200, -71.838
 441.5300, -70.595
 441.5400, -78.271
 441.5500,-210.000
 441.5600, -73.787
 441.5700, -71.249
 441.5800, -72.259
 441.5900, -73.743
 441.6000,-210.000
 441.6100, -76.854
 441.6200, -72.535
 441.6300, -73.520
 441.6400, -71.059
 441.6500,-210.000
 441.6600, -73.146
 441.6700, -70.325
 441.6800, -75.943
 441.6900,-210.000
 441.7000, -71.902
 441.7100,-210.000
 441.7200, -75.010
 441.7300, -72.205
 441.7400, -74.640
 441.7500, -73.601
 441.7600,-210.000
 441.7700, -73.512
 441.7800, -72.245
 441.7900,-210.000
 441.8000, -71.938
 441.8100, -71.297
 441.8200, -71.764
 441.8300, -73.997
 441.8400, -74.657
 441.8500,-210.000
 441.8600, -69.759
 441.8700, -73.180
 441.8800, -69.920
 441.8900,-210.000
 441.9000, -70.872
 441.9100,-210.000
 441.9200,-210.000
 441.9300,-210.000
 441.9400, -70.596
 441.9500, -73.665
 441.9600, -78.488
 441.9700,-210.000
 441.9800, -76.862
 441.9900, -77.198
 442.0000,-210.000
 442.0100,-210.000
 442.0200,-210.000
 442.0300,-210.000
 442.0400,-210.000
 442.0500, -73.031
 442.0600,-210.000
 442.0700,-210.000
 442.0800, -77.861
 442.0900, -76.648
 442.1000, -71.185
 442.1100, -71.463
 442.1200, -71.027
 442.1300, -83.754
 442.1400,-210.000
 442.1500, -71.778
 442.1600,-210.000
 442.1700, -69.935
 442.1800, -74.119
 442.1900, -76.607
 442.2000, -82.267
 442.2100, -73.151
 442.2200, -71.595
 442.2300, -73.234
 442.2400, -72.325
 442.2500, -71.733
 442.2600,-210.000
 442.2700, -77.715
 442.2800, -71.312
 442.2900,-210.000
 442.3000, -79.255
 442.3100,-210.000
 442.3200, -69.360
 442.3300,-210.000
 442.3400, -72.946
 442.3500,-210.000
 442.3600, -72.463
 442.3700, -71.178
 442.3800, -71.826
 442.3900, -81.563
 442.4000, -75.373
 442.4100, -80.245
 442.4200, -77.796
 442.4300, -74.981
 442.4400, -71.847
 442.4500, -74.786
 442.4600, -72.850
 442.4700, -74.813
 442.4800,-210.000
 442.4900, -90.111
 442.5000,-210.000
 442.5100, -73.052
 442.5200,-210.000
 442.5300, -77.722
 442.5400, -72.208
 442.5500, -75.243
 442.5600, -91.746
 442.5700, -81.271
 442.5800, -77.307
 442.5900, -73.063
 442.6000, -78.750
 442.6100, -69.951
 442.6200, -72.855
 442.6300,-210.000
 442.6400, -73.072
 442.6500, -82.672
 442.6600, -77.430
 442.6700, -72.625
 442.6800, -72.800
 442.6900, -74.591
 442.7000, -75.842
 442.7100,-210.000
 442.7200,-210.000
 442.7300, -75.430
 442.7400, -73.132
 442.7500, -72.968
 442.7600,-210.000
 442.7700, -81.181
 442.7800, -87.237
 442.7900, -70.930
 442.8000,-210.000
 442.8100, -70.721
 442.8200, -70.735
 442.8300,-210.000
 442.8400, -78.014
 442.8500, -76.699
 442.8600,-210.000
 442.8700, -71.194
 442.8800, -74.527
 442.8900,-210.000
 442.9000, -76.306
 442.9100, -79.902
 442.9200,-210.000
 442.9300, -70.085
 442.9400, -74.574
 442.9500, -72.639
 442.9600, -74.879
 442.9700, -76.061
 442.9800,-210.000
 442.9900, -70.975
 443.0000, -80.031
 443.0100, -78.536
 443.0200,-210.000
 443.0300, -71.235
 443.0400, -70.574
 443.0500, -73.059
 443.0600, -70.732
 443.0700, -75.378
 443.0800, -77.696
 443.0900, -73.203
 443.1000,-210.000
 443.1100, -72.037
 443.1200, -73.174
 443.1300, -75.355
 443.1400,-210.000
 443.1500,-210.000
 443.1600, -70.621
 443.1700,-210.000
 443.1800, -75.284
 443.1900, -72.444
 443.2000,-210.000
 443.2100,-210.000
 443.2200, -76.399
 443.2300, -83.522
 443.2400,-210.000
 443.2500,-210.000
 443.2600,-210.000
 443.2700,-210.000
 443.2800, -74.691
 443.2900, -72.888
 443.3000, -69.859
 443.3100, -72.501
 443.3200, -78.251
 443.3300, -69.626
 443.3400, -80.054
 443.3500, -72.611
 443.3600, -73.717
 443.3700, -84.508
 443.3800,-210.000
 443.3900,-210.000
 443.4000, -83.959
 443.4100, -84.375
 443.4200, -72.086
 443.4300, -70.061
 443.4400, -69.456
 443.4500, -75.390
 443.4600, -72.953
 443.4700, -70.708
 443.4800, -73.269
 443.4900,-210.000
 443.5000,-210.000
 443.5100,-210.000
 443.5200, -74.408
 443.5300,-210.000
 443.5400, -70.205
 443.5500, -67.937
 443.5600, -77.753
 443.5700,-210.000
 443.5800, -71.599
 443.5900,-210.000
 443.6000, -75.450
 443.6100, -74.211
 443.6200, -71.966
 443.6300, -77.531
 443.6400, -77.873
 443.6500,-210.000
 443.6600, -71.947
 443.6700,-210.000
 443.6800, -71.177
 443.6900, -77.260
 443.7000, -69.278
 443.7100, -72.506
 443.7200,-210.000
 443.7300, -73.517
 443.7400, -72.898
 443.7500, -73.238
 443.7600, -73.097
 443.7700, -75.137
 443.7800,-210.000
 443.7900,-210.000
 443.8000, -70.025
 443.8100, -72.943
 443.8200,-210.000
 443.8300,-210.000
 443.8400, -77.800
 443.8500, -71.725
 443.8600, -71.141
 443.8700, -69.745
 443.8800,-210.000
 443.8900, -78.268
 443.9000, -72.690
 443.9100, -74.034
 443.9200, -71.605
 443.9300, -71.798
 443.9400, -69.875
 443.9500,-210.000
 443.9600,-210.000
 443.9700, -72.381
 443.9800,-210.000
 443.9900, -73.623
 444.0000,-210.000
 444.0100, -77.835
 444.0200, -86.841
 444.0300, -74.206
 444.0400, -70.628
 444.0500, -94.695
 444.0600, -74.780
 444.0700,-210.000
 444.0800, -77.776
 444.0900, -73.978
 444.1000, -73.733
 444.1100, -78.587
 444.1200, -77.227
 444.1300, -71.887
 444.1400, -79.412
 444.1500, -89.054
 444.1600, -75.532
 444.1700, -75.075
 444.1800, -71.603
 444.1900,-210.000
 444.2000, -72.990
 444.2100, -71.627
 444.2200, -77.334
 444.2300, -71.893
 444.2400, -74.921
 444.2500, -72.062
 444.2600,-210.000
 444.2700,-210.000
 444.2800, -73.646
 444.2900,-210.000
 444.3000, -72.574
 444.3100, -77.891
 444.3200, -70.643
 444.3300,-210.000
 444.3400,-210.000
 444.3500,-210.000
 444.3600, -71.840
 444.3700, -74.902
 444.3800, -74.084
 444.3900,-210.000
 444.4000, -75.810
 444.4100, -71.551
 444.4200, -71.531
 444.4300,-210.000
 444.4400, -75.129
 444.4500,-210.000
 444.4600, -74.842
 444.4700, -73.251
 444.4800, -73.730
 444.4900,-210.000
 444.5000, -71.529
 444.5100, -72.530
 444.5200, -91.001
 444.5300, -73.794
 444.5400, -75.791
 444.5500, -72.237
 444.5600, -72.255
 444.5700, -71.186
 444.5800, -81.807
 444.5900, -70.535
 444.6000, -70.865
 444.6100, -73.190
 444.6200, -73.424
 444.6300,-210.000
 444.6400,-210.000
 444.6500,-210.000
 444.6600,-210.000
 444.6700, -71.781
 444.6800, -74.589
 444.6900, -71.949
 444.7000,-210.000
 444.7100, -77.054
 444.7200,-210.000
 444.7300, -71.963
 444.7400, -78.542
 444.7500, -73.306
 444.7600,-210.000
 444.7700, -70.314
 444.7800, -68.070
 444.7900,-210.000
 444.8000, -72.867
 444.8100, -72.670
 444.8200,-210.000
 444.8300, -71.990
 444.8400,-210.000
 444.8500, -81.106
 444.8600, -74.783
 444.8700, -74.131
 444.8800, -72.748
 444.8900, -74.123
 444.9000, -71.936
 444.9100, -73.336
 444.9200, -73.732
 444.9300, -73.513
 444.9400, -78.667
 444.9500, -73.343
 444.9600, -75.713
 444.9700, -80.072
 444.9800, -69.912
 444.9900, -89.881
 445.0000, -79.645
 445.0100,-210.000
 445.0200,-210.000
 445.0300, -71.728
 445.0400, -72.399
 445.0500, -75.746
 445.0600,-210.000
 445.0700,-210.000
 445.0800, -73.286
 445.0900, -68.750
 445.1000,-210.000
 445.1100, -72.831
 445.1200, -75.097
 445.1300, -77.832
 445.1400,-210.000
 445.1500, -74.918
 445.1600, -73.497
 445.1700, -82.851
 445.1800,-210.000
 445.1900, -71.929
 445.2000, -75.643
 445.2100,-210.000
 445.2200,-210.000
