73CSV  	
// AQ6373B OPTICAL SPECTRUM ANALYZER //                 
35
"CTRWL", 976.000000
"SPAN",  50.000000
"START WL", 951.000000
"STOP WL",1001.000000
"WLFREQ", 0
"REFL",-32.2
"LSCL",10.0
"RESLN",0.050
"AVG",   1
"SMPLAUTO",      1
"SMPL",       5001
"SMPLINTVL",0.0100
"HIGH1"
"MEAS"
"LSUNT",0
"NMSKH","OFF"
"RESCOR",0
"SMOOTH",0
"MEASWL",0
"SWPSPD",0
"CHGPT",          0
"RESCAL0_0",       9389
"RESCAL0_1",        538
"RESCAL0_2",    -340913
"RESCAL1_0",       9652
"RESCAL1_1",         64
"RESCAL1_2",     -41039
"CORESIZE", 0







"[TRACE DATA]"
 951.0000,-210.000
 951.0100, -78.173
 951.0200, -83.754
 951.0300, -80.903
 951.0400, -76.118
 951.0500, -76.224
 951.0600, -76.562
 951.0700, -81.801
 951.0800, -81.206
 951.0900, -77.828
 951.1000, -88.855
 951.1100, -87.344
 951.1200, -79.324
 951.1300, -78.530
 951.1400, -77.850
 951.1500, -81.104
 951.1600, -80.639
 951.1700, -80.792
 951.1800, -78.090
 951.1900, -78.997
 951.2000, -81.621
 951.2100, -77.384
 951.2200, -77.289
 951.2300, -78.153
 951.2400,-109.264
 951.2500, -79.059
 951.2600,-210.000
 951.2700, -83.402
 951.2800, -79.403
 951.2900, -77.231
 951.3000, -76.741
 951.3100, -78.808
 951.3200, -80.858
 951.3300, -79.088
 951.3400, -77.523
 951.3500, -77.607
 951.3600, -82.096
 951.3700, -81.118
 951.3800, -83.690
 951.3900, -81.756
 951.4000, -78.158
 951.4100, -79.534
 951.4200, -82.227
 951.4300, -82.799
 951.4400, -78.483
 951.4500, -82.882
 951.4600, -84.913
 951.4700, -80.639
 951.4800, -81.983
 951.4900, -78.009
 951.5000, -76.623
 951.5100,-210.000
 951.5200, -81.864
 951.5300, -77.761
 951.5400, -80.974
 951.5500, -79.682
 951.5600, -78.676
 951.5700, -77.947
 951.5800, -77.545
 951.5900, -82.071
 951.6000, -76.264
 951.6100, -78.815
 951.6200, -80.912
 951.6300, -78.730
 951.6400, -79.142
 951.6500, -84.850
 951.6600, -81.912
 951.6700, -75.354
 951.6800, -83.410
 951.6900, -75.632
 951.7000, -82.844
 951.7100, -77.361
 951.7200, -79.603
 951.7300, -78.855
 951.7400, -79.317
 951.7500, -78.635
 951.7600, -78.317
 951.7700, -78.204
 951.7800, -80.838
 951.7900, -78.933
 951.8000, -80.185
 951.8100, -80.574
 951.8200, -75.627
 951.8300, -79.111
 951.8400, -79.071
 951.8500, -81.869
 951.8600, -79.070
 951.8700, -77.302
 951.8800, -87.927
 951.8900, -77.833
 951.9000, -77.694
 951.9100, -78.522
 951.9200, -85.934
 951.9300, -76.931
 951.9400, -77.607
 951.9500, -80.257
 951.9600, -80.414
 951.9700, -78.897
 951.9800, -83.680
 951.9900, -79.727
 952.0000, -78.605
 952.0100, -79.652
 952.0200, -76.420
 952.0300, -77.984
 952.0400, -91.505
 952.0500, -83.927
 952.0600, -80.408
 952.0700,-210.000
 952.0800, -77.133
 952.0900,-210.000
 952.1000, -76.949
 952.1100, -78.013
 952.1200, -76.734
 952.1300, -80.721
 952.1400, -78.537
 952.1500, -75.975
 952.1600, -82.076
 952.1700, -81.249
 952.1800, -77.033
 952.1900, -78.182
 952.2000, -97.635
 952.2100, -78.409
 952.2200, -77.378
 952.2300, -76.638
 952.2400, -78.449
 952.2500, -78.404
 952.2600, -78.292
 952.2700, -79.278
 952.2800, -78.192
 952.2900, -75.661
 952.3000, -82.032
 952.3100,-210.000
 952.3200, -81.297
 952.3300, -83.702
 952.3400, -80.227
 952.3500,-210.000
 952.3600, -79.914
 952.3700, -78.615
 952.3800,-210.000
 952.3900, -77.543
 952.4000, -76.081
 952.4100, -82.184
 952.4200,-210.000
 952.4300, -86.815
 952.4400, -79.357
 952.4500, -77.706
 952.4600, -76.727
 952.4700, -79.774
 952.4800, -80.178
 952.4900, -80.610
 952.5000, -82.504
 952.5100, -79.966
 952.5200, -80.467
 952.5300, -82.605
 952.5400, -78.977
 952.5500, -75.743
 952.5600, -80.532
 952.5700, -83.580
 952.5800, -77.639
 952.5900, -79.985
 952.6000, -79.606
 952.6100, -79.133
 952.6200, -80.615
 952.6300, -84.511
 952.6400, -81.120
 952.6500, -83.319
 952.6600, -78.389
 952.6700, -77.398
 952.6800, -78.291
 952.6900, -77.182
 952.7000, -80.739
 952.7100, -79.849
 952.7200, -78.790
 952.7300, -77.793
 952.7400, -77.765
 952.7500, -79.318
 952.7600, -75.606
 952.7700, -76.926
 952.7800, -92.888
 952.7900, -76.812
 952.8000, -79.841
 952.8100, -78.268
 952.8200, -76.746
 952.8300, -80.934
 952.8400, -82.564
 952.8500, -79.231
 952.8600, -76.980
 952.8700, -80.160
 952.8800, -77.980
 952.8900, -77.474
 952.9000, -81.288
 952.9100, -77.831
 952.9200, -78.371
 952.9300, -80.263
 952.9400, -76.414
 952.9500, -78.552
 952.9600, -77.166
 952.9700, -76.668
 952.9800, -76.518
 952.9900, -81.189
 953.0000, -77.766
 953.0100, -76.830
 953.0200, -82.424
 953.0300, -80.203
 953.0400,-210.000
 953.0500, -81.089
 953.0600, -77.608
 953.0700, -76.097
 953.0800, -79.699
 953.0900, -76.938
 953.1000, -78.912
 953.1100,-210.000
 953.1200, -93.782
 953.1300, -78.536
 953.1400, -87.259
 953.1500, -81.361
 953.1600, -78.102
 953.1700, -78.576
 953.1800, -75.599
 953.1900, -81.869
 953.2000, -78.729
 953.2100,-210.000
 953.2200, -77.958
 953.2300, -78.616
 953.2400, -76.543
 953.2500, -80.349
 953.2600, -76.386
 953.2700, -78.115
 953.2800, -80.121
 953.2900, -80.995
 953.3000, -80.153
 953.3100, -78.866
 953.3200, -83.611
 953.3300, -94.416
 953.3400, -83.272
 953.3500, -76.325
 953.3600, -75.972
 953.3700, -76.199
 953.3800, -81.577
 953.3900, -84.085
 953.4000, -78.501
 953.4100, -79.410
 953.4200, -82.257
 953.4300, -82.811
 953.4400, -78.786
 953.4500, -77.355
 953.4600, -78.405
 953.4700,-210.000
 953.4800, -80.697
 953.4900, -78.554
 953.5000, -77.820
 953.5100, -77.555
 953.5200, -76.609
 953.5300, -78.056
 953.5400, -78.398
 953.5500, -79.158
 953.5600, -77.839
 953.5700, -76.274
 953.5800, -75.653
 953.5900, -78.803
 953.6000,-102.979
 953.6100, -79.384
 953.6200, -81.554
 953.6300, -76.804
 953.6400, -80.801
 953.6500, -80.797
 953.6600, -76.853
 953.6700, -78.166
 953.6800, -86.105
 953.6900, -81.871
 953.7000, -78.488
 953.7100, -78.343
 953.7200, -78.045
 953.7300, -81.972
 953.7400, -77.583
 953.7500, -77.833
 953.7600, -84.081
 953.7700, -82.935
 953.7800, -78.001
 953.7900, -80.028
 953.8000, -77.558
 953.8100, -75.806
 953.8200, -77.612
 953.8300, -80.510
 953.8400, -81.299
 953.8500, -77.231
 953.8600, -78.054
 953.8700, -79.583
 953.8800, -80.180
 953.8900, -82.588
 953.9000, -83.170
 953.9100, -88.028
 953.9200, -80.629
 953.9300, -77.001
 953.9400, -76.862
 953.9500, -79.398
 953.9600, -76.810
 953.9700, -80.024
 953.9800, -82.346
 953.9900, -79.623
 954.0000, -80.236
 954.0100, -77.696
 954.0200, -80.488
 954.0300, -80.722
 954.0400,-210.000
 954.0500, -77.291
 954.0600, -77.912
 954.0700, -80.596
 954.0800, -79.177
 954.0900, -78.340
 954.1000, -77.261
 954.1100, -79.771
 954.1200, -76.231
 954.1300, -76.078
 954.1400, -74.745
 954.1500, -81.187
 954.1600, -79.840
 954.1700, -79.717
 954.1800, -81.387
 954.1900, -77.753
 954.2000, -79.775
 954.2100, -79.392
 954.2200, -76.743
 954.2300, -76.282
 954.2400, -79.591
 954.2500, -77.073
 954.2600, -75.043
 954.2700, -77.237
 954.2800,-100.056
 954.2900, -79.263
 954.3000, -82.621
 954.3100, -77.877
 954.3200, -80.251
 954.3300, -78.640
 954.3400, -80.593
 954.3500, -77.006
 954.3600, -77.054
 954.3700, -77.715
 954.3800, -80.143
 954.3900, -80.205
 954.4000, -77.520
 954.4100, -82.649
 954.4200, -79.228
 954.4300, -77.871
 954.4400, -76.579
 954.4500, -76.984
 954.4600, -78.263
 954.4700, -76.418
 954.4800, -78.172
 954.4900, -76.486
 954.5000, -79.487
 954.5100, -78.990
 954.5200, -76.318
 954.5300, -80.137
 954.5400, -85.385
 954.5500, -78.646
 954.5600, -80.789
 954.5700, -78.949
 954.5800, -78.868
 954.5900, -77.953
 954.6000, -79.789
 954.6100, -77.475
 954.6200, -81.600
 954.6300, -81.951
 954.6400, -75.842
 954.6500, -77.964
 954.6600, -79.667
 954.6700, -76.912
 954.6800, -77.468
 954.6900, -81.593
 954.7000, -77.090
 954.7100, -75.796
 954.7200, -76.949
 954.7300, -79.455
 954.7400,-210.000
 954.7500, -79.029
 954.7600, -82.063
 954.7700, -77.795
 954.7800, -77.858
 954.7900, -78.218
 954.8000, -76.969
 954.8100, -83.256
 954.8200, -76.028
 954.8300, -76.721
 954.8400, -87.435
 954.8500, -77.221
 954.8600, -75.439
 954.8700, -80.842
 954.8800, -79.207
 954.8900, -78.086
 954.9000, -75.986
 954.9100, -76.021
 954.9200, -79.710
 954.9300, -78.287
 954.9400, -80.812
 954.9500, -76.540
 954.9600, -81.128
 954.9700, -76.964
 954.9800, -83.862
 954.9900, -78.639
 955.0000, -80.677
 955.0100, -78.594
 955.0200, -79.492
 955.0300, -77.639
 955.0400, -79.114
 955.0500, -79.452
 955.0600, -79.930
 955.0700, -79.052
 955.0800, -77.808
 955.0900, -76.339
 955.1000, -82.447
 955.1100, -79.373
 955.1200, -78.317
 955.1300, -78.114
 955.1400, -75.525
 955.1500, -84.646
 955.1600, -82.031
 955.1700, -79.939
 955.1800, -78.567
 955.1900, -79.133
 955.2000, -78.845
 955.2100,-210.000
 955.2200, -76.470
 955.2300, -77.297
 955.2400, -76.442
 955.2500, -81.641
 955.2600, -75.596
 955.2700, -80.895
 955.2800, -80.078
 955.2900, -84.850
 955.3000, -80.693
 955.3100, -77.169
 955.3200, -76.196
 955.3300, -75.406
 955.3400, -78.169
 955.3500, -76.840
 955.3600, -77.284
 955.3700, -81.606
 955.3800, -78.336
 955.3900, -77.796
 955.4000, -81.895
 955.4100, -81.302
 955.4200, -76.072
 955.4300, -76.674
 955.4400, -76.630
 955.4500, -79.346
 955.4600, -78.246
 955.4700, -77.533
 955.4800, -84.120
 955.4900, -76.551
 955.5000, -76.907
 955.5100, -78.704
 955.5200, -76.944
 955.5300, -75.829
 955.5400, -77.813
 955.5500, -78.596
 955.5600, -79.215
 955.5700, -78.562
 955.5800, -80.869
 955.5900, -76.175
 955.6000, -76.796
 955.6100, -77.953
 955.6200, -75.095
 955.6300, -76.574
 955.6400, -78.447
 955.6500, -77.272
 955.6600, -77.312
 955.6700, -75.766
 955.6800, -82.474
 955.6900, -76.946
 955.7000, -82.746
 955.7100, -76.722
 955.7200, -78.899
 955.7300, -79.538
 955.7400, -77.871
 955.7500, -78.967
 955.7600, -80.851
 955.7700, -79.827
 955.7800, -75.395
 955.7900, -82.091
 955.8000, -83.484
 955.8100, -81.801
 955.8200, -74.821
 955.8300, -75.630
 955.8400, -77.571
 955.8500, -74.900
 955.8600, -75.245
 955.8700, -76.507
 955.8800, -77.717
 955.8900, -79.210
 955.9000, -79.095
 955.9100, -85.148
 955.9200, -78.857
 955.9300, -78.547
 955.9400, -77.931
 955.9500, -81.177
 955.9600, -75.656
 955.9700, -77.017
 955.9800, -77.527
 955.9900, -76.568
 956.0000, -77.387
 956.0100, -78.189
 956.0200, -78.851
 956.0300, -78.385
 956.0400, -78.169
 956.0500, -78.265
 956.0600, -91.350
 956.0700, -75.887
 956.0800, -75.554
 956.0900, -77.255
 956.1000, -81.029
 956.1100, -80.036
 956.1200, -78.786
 956.1300, -76.300
 956.1400, -79.469
 956.1500, -77.883
 956.1600, -78.553
 956.1700, -81.122
 956.1800, -79.098
 956.1900, -77.360
 956.2000, -79.261
 956.2100, -75.758
 956.2200, -80.809
 956.2300, -78.101
 956.2400, -78.499
 956.2500, -82.228
 956.2600, -76.325
 956.2700, -76.685
 956.2800, -78.937
 956.2900, -83.266
 956.3000, -82.030
 956.3100, -76.562
 956.3200, -75.242
 956.3300, -76.728
 956.3400, -76.906
 956.3500, -78.623
 956.3600, -79.118
 956.3700, -76.213
 956.3800, -78.995
 956.3900, -76.735
 956.4000, -79.410
 956.4100, -77.388
 956.4200, -78.447
 956.4300, -77.787
 956.4400, -80.236
 956.4500, -77.522
 956.4600, -76.261
 956.4700, -78.041
 956.4800, -79.958
 956.4900, -76.793
 956.5000, -81.357
 956.5100,-210.000
 956.5200, -77.247
 956.5300, -77.098
 956.5400, -77.919
 956.5500, -75.648
 956.5600, -80.654
 956.5700, -78.172
 956.5800, -79.726
 956.5900, -77.103
 956.6000, -77.750
 956.6100, -76.259
 956.6200, -78.450
 956.6300, -79.900
 956.6400, -78.953
 956.6500, -78.551
 956.6600, -77.847
 956.6700, -78.171
 956.6800, -76.272
 956.6900, -76.417
 956.7000, -75.191
 956.7100, -76.564
 956.7200, -76.585
 956.7300, -76.821
 956.7400, -79.309
 956.7500, -78.981
 956.7600, -77.170
 956.7700, -76.236
 956.7800, -80.992
 956.7900, -76.109
 956.8000, -80.264
 956.8100, -77.335
 956.8200, -77.382
 956.8300, -75.710
 956.8400, -84.804
 956.8500, -76.253
 956.8600, -79.458
 956.8700, -76.606
 956.8800, -75.982
 956.8900, -78.758
 956.9000, -76.655
 956.9100, -80.321
 956.9200, -77.174
 956.9300, -77.464
 956.9400, -81.041
 956.9500, -80.332
 956.9600, -76.010
 956.9700, -78.178
 956.9800, -77.710
 956.9900, -76.456
 957.0000, -76.608
 957.0100, -76.561
 957.0200, -78.212
 957.0300, -77.127
 957.0400, -76.385
 957.0500, -79.750
 957.0600, -79.136
 957.0700, -81.110
 957.0800, -78.489
 957.0900, -78.287
 957.1000, -76.850
 957.1100, -75.883
 957.1200, -75.637
 957.1300, -77.303
 957.1400, -78.423
 957.1500, -76.135
 957.1600, -76.517
 957.1700, -81.209
 957.1800, -78.786
 957.1900, -80.145
 957.2000, -76.119
 957.2100, -77.293
 957.2200, -75.239
 957.2300, -74.916
 957.2400, -77.561
 957.2500, -75.263
 957.2600, -76.619
 957.2700, -76.386
 957.2800, -76.409
 957.2900, -78.083
 957.3000, -80.450
 957.3100, -76.355
 957.3200, -76.835
 957.3300, -75.127
 957.3400, -77.738
 957.3500, -76.401
 957.3600, -90.303
 957.3700, -78.076
 957.3800, -76.658
 957.3900, -74.706
 957.4000, -78.428
 957.4100, -76.043
 957.4200, -76.838
 957.4300, -77.753
 957.4400, -75.743
 957.4500, -77.170
 957.4600, -76.794
 957.4700, -77.881
 957.4800, -77.715
 957.4900, -76.301
 957.5000, -76.383
 957.5100, -81.735
 957.5200, -81.991
 957.5300, -76.874
 957.5400, -78.496
 957.5500, -75.903
 957.5600, -76.660
 957.5700, -76.509
 957.5800, -74.944
 957.5900, -85.763
 957.6000, -76.749
 957.6100, -77.971
 957.6200, -75.932
 957.6300, -75.931
 957.6400, -76.061
 957.6500, -75.987
 957.6600, -75.207
 957.6700, -79.272
 957.6800, -77.030
 957.6900, -78.101
 957.7000, -75.184
 957.7100, -81.557
 957.7200, -78.703
 957.7300, -76.772
 957.7400, -75.201
 957.7500, -76.375
 957.7600, -83.954
 957.7700, -77.355
 957.7800, -76.962
 957.7900, -75.421
 957.8000, -82.159
 957.8100, -75.693
 957.8200, -76.214
 957.8300, -75.877
 957.8400, -79.507
 957.8500, -75.376
 957.8600, -77.050
 957.8700, -78.252
 957.8800, -75.940
 957.8900, -75.242
 957.9000, -74.474
 957.9100, -78.856
 957.9200, -76.340
 957.9300, -73.643
 957.9400, -78.062
 957.9500, -77.750
 957.9600, -77.241
 957.9700, -76.629
 957.9800, -75.275
 957.9900, -75.890
 958.0000, -75.510
 958.0100, -74.749
 958.0200, -77.346
 958.0300, -77.307
 958.0400, -75.189
 958.0500, -75.754
 958.0600, -76.493
 958.0700, -75.685
 958.0800, -75.445
 958.0900, -80.972
 958.1000, -75.742
 958.1100, -76.110
 958.1200, -75.378
 958.1300, -76.307
 958.1400, -75.396
 958.1500, -75.061
 958.1600, -76.937
 958.1700, -77.633
 958.1800, -76.353
 958.1900, -77.385
 958.2000, -76.321
 958.2100, -75.635
 958.2200, -75.508
 958.2300, -79.154
 958.2400, -75.628
 958.2500, -77.703
 958.2600, -74.691
 958.2700, -77.483
 958.2800, -75.628
 958.2900, -76.965
 958.3000, -76.725
 958.3100, -75.337
 958.3200, -76.485
 958.3300, -76.631
 958.3400, -77.257
 958.3500, -77.812
 958.3600, -76.083
 958.3700, -74.747
 958.3800, -78.750
 958.3900, -78.160
 958.4000, -73.813
 958.4100, -76.579
 958.4200, -77.901
 958.4300, -76.268
 958.4400, -75.438
 958.4500, -76.986
 958.4600, -75.671
 958.4700, -75.598
 958.4800, -75.790
 958.4900, -74.378
 958.5000, -77.441
 958.5100, -76.382
 958.5200, -75.292
 958.5300, -74.615
 958.5400, -76.872
 958.5500, -75.961
 958.5600, -79.947
 958.5700, -76.281
 958.5800, -79.333
 958.5900, -77.243
 958.6000, -74.310
 958.6100, -75.258
 958.6200, -75.377
 958.6300, -77.194
 958.6400, -75.925
 958.6500, -77.129
 958.6600, -76.471
 958.6700, -75.936
 958.6800, -75.558
 958.6900, -73.625
 958.7000, -76.576
 958.7100, -76.450
 958.7200, -77.155
 958.7300, -74.854
 958.7400, -76.567
 958.7500, -77.286
 958.7600, -76.720
 958.7700, -75.722
 958.7800, -75.101
 958.7900, -74.469
 958.8000, -80.233
 958.8100, -74.774
 958.8200, -74.894
 958.8300, -75.717
 958.8400, -74.857
 958.8500, -75.463
 958.8600, -75.087
 958.8700, -74.007
 958.8800, -77.262
 958.8900, -77.171
 958.9000, -75.996
 958.9100, -74.887
 958.9200, -76.488
 958.9300, -74.977
 958.9400, -76.544
 958.9500, -76.356
 958.9600, -75.846
 958.9700, -75.322
 958.9800, -74.849
 958.9900, -80.157
 959.0000, -75.734
 959.0100, -77.458
 959.0200, -76.474
 959.0300, -73.955
 959.0400, -76.823
 959.0500, -82.068
 959.0600, -74.442
 959.0700, -74.940
 959.0800, -74.583
 959.0900, -75.023
 959.1000, -74.786
 959.1100, -77.355
 959.1200, -75.393
 959.1300, -74.761
 959.1400, -73.905
 959.1500, -73.866
 959.1600, -76.743
 959.1700, -76.077
 959.1800, -75.981
 959.1900, -76.600
 959.2000, -76.523
 959.2100, -75.612
 959.2200, -77.805
 959.2300, -79.040
 959.2400, -75.580
 959.2500, -76.879
 959.2600, -76.241
 959.2700, -76.209
 959.2800, -76.371
 959.2900, -75.333
 959.3000, -76.408
 959.3100, -75.368
 959.3200, -76.285
 959.3300, -76.239
 959.3400, -74.894
 959.3500, -75.481
 959.3600, -76.628
 959.3700, -78.119
 959.3800, -74.711
 959.3900, -75.262
 959.4000, -75.547
 959.4100, -77.583
 959.4200, -75.003
 959.4300, -76.281
 959.4400, -76.310
 959.4500, -74.543
 959.4600, -76.237
 959.4700, -77.319
 959.4800, -75.860
 959.4900, -75.147
 959.5000, -75.686
 959.5100, -77.423
 959.5200, -75.826
 959.5300, -74.774
 959.5400, -76.014
 959.5500, -75.849
 959.5600, -77.537
 959.5700, -74.026
 959.5800, -75.190
 959.5900, -75.612
 959.6000, -75.248
 959.6100, -74.157
 959.6200, -75.982
 959.6300, -74.882
 959.6400, -75.112
 959.6500, -74.862
 959.6600, -75.375
 959.6700, -74.651
 959.6800, -74.541
 959.6900, -75.240
 959.7000, -76.124
 959.7100, -76.612
 959.7200, -75.408
 959.7300, -76.411
 959.7400, -75.980
 959.7500, -76.515
 959.7600, -74.460
 959.7700, -78.209
 959.7800, -78.443
 959.7900, -74.533
 959.8000, -75.877
 959.8100, -74.694
 959.8200, -75.765
 959.8300, -77.031
 959.8400, -74.261
 959.8500, -76.982
 959.8600, -75.240
 959.8700, -74.513
 959.8800, -76.041
 959.8900, -75.560
 959.9000, -75.080
 959.9100, -76.587
 959.9200, -75.693
 959.9300, -75.739
 959.9400, -77.195
 959.9500, -75.971
 959.9600, -75.189
 959.9700, -75.381
 959.9800, -74.373
 959.9900, -74.362
 960.0000, -74.829
 960.0100, -75.634
 960.0200, -74.918
 960.0300, -74.909
 960.0400, -74.546
 960.0500, -74.384
 960.0600, -74.524
 960.0700, -75.604
 960.0800, -73.716
 960.0900, -75.179
 960.1000, -76.449
 960.1100, -73.011
 960.1200, -74.044
 960.1300, -74.913
 960.1400, -73.612
 960.1500, -75.229
 960.1600, -74.296
 960.1700, -74.431
 960.1800, -75.263
 960.1900, -75.403
 960.2000, -74.480
 960.2100, -74.510
 960.2200, -74.259
 960.2300, -75.518
 960.2400, -75.324
 960.2500, -74.166
 960.2600, -76.495
 960.2700, -74.590
 960.2800, -77.001
 960.2900, -76.420
 960.3000, -74.877
 960.3100, -74.794
 960.3200, -75.015
 960.3300, -73.431
 960.3400, -77.736
 960.3500, -74.653
 960.3600, -73.552
 960.3700, -74.289
 960.3800, -73.758
 960.3900, -74.226
 960.4000, -75.510
 960.4100, -74.616
 960.4200, -75.540
 960.4300, -75.626
 960.4400, -75.282
 960.4500, -74.398
 960.4600, -75.523
 960.4700, -72.944
 960.4800, -73.980
 960.4900, -72.723
 960.5000, -73.713
 960.5100, -74.098
 960.5200, -74.475
 960.5300, -73.513
 960.5400, -74.142
 960.5500, -73.566
 960.5600, -74.913
 960.5700, -74.992
 960.5800, -73.125
 960.5900, -74.850
 960.6000, -73.201
 960.6100, -74.368
 960.6200, -74.527
 960.6300, -74.679
 960.6400, -74.383
 960.6500, -74.265
 960.6600, -74.472
 960.6700, -73.910
 960.6800, -74.705
 960.6900, -74.548
 960.7000, -74.020
 960.7100, -73.931
 960.7200, -73.965
 960.7300, -74.949
 960.7400, -73.936
 960.7500, -73.672
 960.7600, -73.756
 960.7700, -74.837
 960.7800, -74.119
 960.7900, -73.065
 960.8000, -73.465
 960.8100, -74.712
 960.8200, -74.773
 960.8300, -75.272
 960.8400, -73.733
 960.8500, -73.756
 960.8600, -73.634
 960.8700, -77.372
 960.8800, -74.123
 960.8900, -74.463
 960.9000, -75.046
 960.9100, -73.313
 960.9200, -75.670
 960.9300, -73.564
 960.9400, -75.965
 960.9500, -74.746
 960.9600, -73.931
 960.9700, -73.159
 960.9800, -73.933
 960.9900, -75.336
 961.0000, -74.005
 961.0100, -74.813
 961.0200, -74.364
 961.0300, -74.182
 961.0400, -73.463
 961.0500, -73.875
 961.0600, -74.951
 961.0700, -74.718
 961.0800, -74.367
 961.0900, -74.291
 961.1000, -74.107
 961.1100, -74.400
 961.1200, -73.772
 961.1300, -73.967
 961.1400, -73.913
 961.1500, -73.542
 961.1600, -73.085
 961.1700, -73.432
 961.1800, -73.317
 961.1900, -72.723
 961.2000, -75.416
 961.2100, -75.339
 961.2200, -73.712
